IESNA:LM-63-2002
[TEST]233P135
[TESTLAB]METALUX RESEARCH LABORATORIES
[ISSUEDATE]04/21/04
[MANUFAC]COOPER LIGHTING - METALUX
[LUMCAT]NY-2GC8-432A-UNV-EB81
[LUMINAIRE]METALUX 2' X 4' SPECIFICATION GRADE NYC RATED RECESSED FLUORESCENT TROFFER
[MORE]WITH HIGH REFLECTANCE WHITE INTERIOR FINISH AND ACRYLIC PRISMATIC LENS
[LAMP]FOUR - FO32/35K - 2800 LUMENS EA. - 32 WATTS EA.
[BALLAST]UNIVERSAL B432I120RH-A
[OTHER]TOTAL INPUT WATTS 110
[_PAINTREFL]92.0 %
TILT=NONE
4 2800 1 37 5 1  1 1.791667 3.812500 0.000000
1.000 1 112
0 2.5 5 7.5 10 12.5 15 17.5 20 22.5 25 27.5 30 32.5 35 37.5 40 42.5 45 47.5 50 
 52.5 55 57.5 60 62.5 65 67.5 70 72.5 75 77.5 80 82.5 85 87.5 90 
0 22.5 45 67.5 90 
3460 3453 3444 3426 3402 3371 3331 3284 3228 3162 3085 2997 2899 2790 2670 
 2537 2392 2230 2057 1880 1701 1531 1370 1211 1059 914 783 666 568 486 419 365 
 316 254 183 106 0 
3460 3452 3443 3427 3404 3375 3337 3292 3239 3176 3104 3020 2925 2818 2699 
 2564 2415 2254 2083 1905 1727 1547 1366 1190 1020 863 725 608 514 440 379 324 
 268 214 160 98 0 
3460 3458 3452 3440 3422 3398 3367 3328 3282 3227 3163 3089 3003 2903 2789 
 2657 2510 2351 2184 2014 1843 1665 1478 1282 1083 891 719 568 449 363 315 287 
 259 217 159 93 0 
3460 3461 3456 3447 3434 3415 3390 3357 3315 3265 3206 3137 3059 2970 2869 
 2753 2618 2466 2297 2115 1926 1732 1535 1340 1153 977 823 694 591 508 438 376 
 321 268 206 127 0 
3460 3464 3461 3452 3441 3425 3401 3369 3329 3280 3222 3155 3079 2996 2904 
 2798 2677 2535 2369 2184 1986 1782 1582 1383 1192 1007 849 720 621 547 491 
 439 381 311 226 134 0 
