IESNA:LM-63-2002
[TEST]233P134
[TESTLAB]METALUX RESEARCH LABORATORIES
[ISSUEDATE]04/21/04
[MANUFAC]COOPER LIGHTING - METALUX
[LUMCAT]NY-2GC8-232A-UNV-EB81
[LUMINAIRE]METALUX 2' X 4' SPECIFICATION GRADE NYC RATED RECESSED FLUORESCENT TROFFER
[MORE]WITH HIGH REFLECTANCE WHITE INTERIOR FINISH AND ACRYLIC PRISMATIC LENS
[LAMP]TWO - FO32/35K - 2800 LUMENS EA. - 32 WATTS EA.
[BALLAST]ULT B232IUNVHP-A
[OTHER]TOTAL INPUT WATTS = 62
[_PAINTREFL]92.0 %
TILT=NONE
2 2800 1 37 5 1 1 1.791667 3.812500 0.000000
1.000 1 62
0 2.5 5 7.5 10 12.5 15 17.5 20 22.5 25 27.5 30 32.5 35 37.5 40 42.5 45 47.5 50
 52.5 55 57.5 60 62.5 65 67.5 70 72.5 75 77.5 80 82.5 85 87.5 90
0 22.5 45 67.5 90
1810 1806 1801 1792 1780 1763 1743 1719 1690 1656 1616 1571 1520 1463 1401
 1333 1258 1175 1085 991 898 810 725 643 564 489 420 359 307 262 226 197 170
 136 98 57 0
1810 1805 1800 1792 1781 1765 1747 1724 1697 1665 1629 1586 1539 1485 1426
 1358 1282 1198 1109 1018 926 834 739 644 553 469 394 329 277 237 204 174 145
 115 87 54 0
1810 1809 1806 1800 1791 1779 1764 1745 1723 1697 1667 1632 1591 1544 1489
 1424 1351 1269 1183 1096 1008 915 813 704 593 487 392 310 244 197 171 156 141
 118 87 51 0
1810 1809 1807 1802 1796 1788 1777 1762 1744 1721 1696 1665 1632 1593 1548
 1494 1429 1351 1263 1169 1068 960 847 735 629 535 451 380 322 276 237 203 174
 145 112 67 0
1810 1812 1810 1805 1800 1793 1782 1768 1750 1728 1703 1675 1644 1608 1569
 1523 1467 1396 1308 1208 1100 987 870 757 650 553 468 395 339 298 266 238 207
 168 122 71 0
