IESNA:LM-63-2002
[TEST]23491     
[TESTLAB]LIGHTING SCIENCES, INC.                            
[ISSUEDATE] 3/ 4/2008
[MANUFAC]COOPER LIGHTING - CORELITE                                  
[LUMCAT]R1-WP-2N5-UNV-24-T1                                                             
[LUMINAIRE]WITH WHITE INTERIOR AND FROSTED LINEAR PRISMATIC PLASTIC LENS WITH ROUND PERF   
[LAMP]TWO SYLVANIA 28 WATT T5 LAMPS                                                   
[LAMPCAT]FP28/841. LUMEN RATING = 2600 LMS.                                              
[OTHER]ONE UNIVERSAL B228PUNV-C BALLAST OPERATING AT 120 VAC AND 61 WATTS              
[OTHER]LAMP COLD SPOT TEMPERATURE - 50.1 & 48.8 C
[OTHER]PAINT REFLECTIVITY - FIXTURE 91% TRAY 94%
TILT=NONE
2
      2600
1
37
5
1
1
  1.95
  3.92
  0.00
1
1
   61.0000
0 2.5 5 7.5 10 12.5 15 17.5 20 22.5 25 27.5 30 32.5 35 37.5
40 42.5 45 47.5 50 52.5 55 57.5 60 62.5 65 67.5 70 72.5 75
77.5 80 82.5 85 87.5 90
0 22.5 45 67.5 90
     986.1      971.4      967.5      960.9      951.8      940.1      925.9      909.1      890.1      868.6
     845.0      819.3      791.8      762.5      731.9      699.9      667.0      632.7      597.5      561.3
     524.7      487.6      450.1      412.2      374.0      335.7      297.3      259.0      220.6      182.8
     145.6      109.7       76.6       49.8       27.8       10.1        1.1
     986.1      978.3      974.7      968.6      960.2      949.2      935.5      919.6      901.5      881.1
     858.8      834.2      807.9      779.7      750.1      719.2      687.0      653.7      619.8      585.4
     550.0      513.9      477.5      440.8      403.9      367.3      331.4      296.7      263.2      231.3
     201.7      177.0      156.7      130.3       85.6       30.8        4.0
     986.1      989.7      986.5      981.3      974.8      965.9      954.6      940.9      925.2      908.1
     888.7      867.4      844.5      819.9      793.6      766.0      737.3      706.4      675.3      643.7
     611.8      579.8      549.1      518.5      488.6      458.7      430.1      404.2      384.1      369.6
     353.8      326.5      280.9      208.5      111.0       40.7        8.6
     986.1      992.3      989.9      985.9      980.8      973.7      964.6      953.2      941.2      927.0
     911.3      893.2      873.5      851.8      828.9      804.6      779.3      753.4      727.5      701.9
     676.4      650.4      623.8      597.8      572.8      551.0      534.4      523.6      513.4      495.9
     467.2      421.2      348.2      230.4      115.1       52.3       12.0
     986.1      992.9      990.1      987.4      983.0      976.6      968.4      959.2      947.9      934.8
     920.3      903.6      884.8      864.3      842.7      820.4      797.3      773.7      750.3      726.8
     702.6      678.1      653.6      629.5      607.6      590.0      578.6      569.6      555.6      533.0
     498.5      443.9      353.3      222.3      114.8       54.5       12.4
