IESNA:LM-63-2002
[TEST]23490     
[TESTLAB]LIGHTING SCIENCES, INC.                            
[ISSUEDATE] 3/ 5/2008
[MANUFAC]COOPER LIGHTING - CORELITE                                      
[LUMCAT]R1-WP-2T5-1C-UNV-22-T1                                                          
[LUMINAIRE]WITH WHITE INTERIOR AND FROSTED LINEAR PRISMATIC PLASTIC LENS WITH ROUND PERF   
[LAMP]TWO SYLVANIA 24 WATT T5HO LAMPS                                                   
[LAMPCAT]FP24/841. LUMEN RATING = 1750 LMS.                                              
[OTHER]ONE UNIVERSAL B228PUNV-C BALLAST OPERATING AT 120 VAC AND 31 WATTS              
[OTHER]LAMP COLD SPOT TEMPERATURE - 48.2 & 46.8 C
[OTHER]PAINT REFLECTIVITY - FIXTURE 93% TRAY 93%
[OTHER]PRORATED FROM T23490
TILT=NONE
2 1750 2.17 37 5 1 1 1.95 1.91 0
1 1 31
0 2.5 5 7.5 10 12.5 15 17.5 20 22.5 25 27.5 30 32.5 35 37.5 40 42.5 45 47.5 50 52.5 55 57.5 60 62.5 65 67.5 70 72.5 75 77.5 80 82.5 85 87.5 90
0 22.5 45 67.5 90
468.70 468.10 466.10 462.80 458.40 452.90 445.80 437.60 428.20 418.00 406.70 394.30 380.90 366.50 351.50 335.90 319.60 303.10 286.20 268.90 251.20 233.00 214.90 196.70 178.30 159.90 142.00 124.20 105.80 87.80 70.20 53.40 38.20 25.80 15.20 6.30 0.80
468.70 468.40 466.60 463.50 459.60 454.40 447.70 440.00 431.20 421.40 410.50 398.50 385.80 372.10 357.80 342.80 327.20 311.00 294.60 277.90 260.60 242.90 225.50 208.00 190.50 173.20 156.00 139.00 122.20 105.90 90.70 76.30 61.90 45.20 25.70 9.40 1.40
468.70 468.40 466.90 464.60 461.30 457.20 451.80 445.30 437.80 429.50 420.40 410.00 398.80 386.70 374.00 360.80 347.20 332.80 318.10 303.50 288.40 273.00 258.10 243.50 229.50 215.70 202.40 189.50 177.80 167.20 155.50 140.20 118.10 83.60 42.60 15.30 2.90
468.70 467.80 466.70 465.10 462.70 459.50 455.40 450.10 444.00 437.10 429.50 420.70 411.30 401.00 390.30 379.10 367.40 355.00 343.00 331.00 319.10 307.20 295.50 284.50 274.10 264.30 255.60 248.10 240.60 231.00 217.60 196.50 161.60 103.20 46.60 20.20 3.60
468.70 467.50 466.60 465.30 463.40 460.50 457.20 452.40 447.00 441.00 434.00 426.20 417.40 407.90 397.70 387.40 376.50 365.70 354.80 344.20 333.70 322.90 312.80 303.20 294.00 285.70 278.70 272.50 265.30 255.60 240.90 217.40 177.30 107.90 47.80 23.00 3.80
