IESNA:LM-63-1995
[TEST]     23309
[MANUFAC]COOPER LIGHTING - CORELITE
[LUMCAT]R2-WB-3N5-24                                                                    
[LUMINAIRE]WITH WHITE INTERIOR AND CLEAR LINEAR PRISMATIC PLASTIC LENS WITH WHITE BAFFLE   
[LAMP]THREE SYLVANIA 28 WATT T5 LAMPS                                                 
[LAMPCAT]FP28/841. LUMEN RATING = 2600 LMS.                                              
[OTHER]TWO UNIVERSAL B228PUNV-C BALLASTS OPERATING AT 120 VAC AND 85 WATTS             
[OTHER]LAMP COLD SPOT TEMPERATURE - 63.2 & 64.0 & 64.9 C
[OTHER]PAINT REFLECTIVITY - FIXTURE 92% TRAY 93%
TILT=NONE
3
      2600
1
37
5
1
1
  1.95
  3.92
  0.00
1
1
   85.0000
0 2.5 5 7.5 10 12.5 15 17.5 20 22.5 25 27.5 30 32.5 35 37.5
40 42.5 45 47.5 50 52.5 55 57.5 60 62.5 65 67.5 70 72.5 75
77.5 80 82.5 85 87.5 90
0 22.5 45 67.5 90
    1561.0     1537.9     1532.6     1523.2     1508.4     1487.9     1461.5     1429.1     1391.3     1348.4
    1300.7     1249.1     1194.6     1137.4     1078.6     1018.3      958.0      896.6      834.4      771.6
     708.6      645.4      583.2      524.5      469.8      418.7      370.3      323.0      275.7      227.9
     180.8      136.6       96.4       61.7       33.9       13.9        3.3
    1561.0     1549.9     1547.8     1541.7     1531.9     1517.2     1496.7     1471.1     1440.9     1405.6
    1367.0     1323.4     1275.4     1223.9     1170.1     1112.4     1052.5      991.0      928.9      868.2
     804.6      738.7      672.9      607.1      544.4      485.3      429.9      378.5      329.9      285.4
     245.6      212.9      184.0      148.7       99.5       44.0        9.2
    1561.0     1569.7     1572.8     1575.8     1578.8     1578.9     1577.0     1573.4     1564.6     1552.5
    1536.0     1514.1     1484.4     1451.0     1410.7     1366.3     1316.3     1261.3     1203.9     1147.2
    1088.9     1025.9      963.7      900.9      837.2      771.6      708.9      653.5      608.3      562.8
     514.1      456.6      382.9      287.6      177.9       78.0       22.2
    1561.0     1575.1     1583.8     1596.2     1611.4     1630.8     1652.0     1669.8     1687.2     1691.3
    1682.0     1660.1     1633.9     1605.8     1575.6     1543.8     1509.2     1472.8     1433.8     1390.8
    1346.5     1300.1     1252.8     1200.6     1142.5     1081.5     1025.7      971.7      917.0      855.4
     783.7      693.9      579.9      431.4      274.1      132.7       40.5
    1561.0     1577.7     1588.2     1606.1     1627.1     1655.1     1684.3     1714.9     1734.8     1738.3
    1727.4     1712.8     1696.2     1680.2     1660.3     1639.1     1615.8     1588.8     1557.9     1521.2
    1482.7     1446.3     1407.0     1362.6     1305.6     1244.0     1186.5     1127.2     1065.9      994.9
     910.1      805.2      667.9      497.8      333.1      166.1       52.7
