IESNA:LM-63-1995
[TEST]     23299
[MANUFAC]COOPER LIGHTING - CORELITE
[LUMCAT]R2-WB-2N5-22                                                                    
[LUMINAIRE]WITH WHITE INTERIOR AND CLEAR LINEAR PRISMATIC PLASTIC LENS WITH WHITE BAFFLE   
[LAMP]TWO SYLVANIA 14 WATT T5 LAMPS                                                   
[LAMPCAT]FP14/841. LUMEN RATING = 1200 LMS.                                              
[OTHER]ONE UNIVERSAL B228PUNV-C BALLAST OPERATING AT 120 VAC AND 32 WATTS              
[OTHER]LAMP COLD SPOT TEMPERATURE - 40.7 & 39.9 C
[OTHER]PAINT REFLECTIVITY - FIXTURE 92% TRAY 84%
TILT=NONE
2
      1200
1
37
5
1
1
  1.95
  1.91
  0.00
1
1
   32.0000
0 2.5 5 7.5 10 12.5 15 17.5 20 22.5 25 27.5 30 32.5 35 37.5
40 42.5 45 47.5 50 52.5 55 57.5 60 62.5 65 67.5 70 72.5 75
77.5 80 82.5 85 87.5 90
0 22.5 45 67.5 90
     560.2      559.5      555.9      550.0      542.1      532.2      519.8      506.0      490.3      473.2
     454.9      435.5      415.1      394.0      372.7      351.7      330.1      308.3      286.0      263.7
     241.4      219.6      198.2      177.9      158.7      141.0      124.4      108.2       92.3       76.9
      61.7       47.1       33.7       21.9       12.2        4.6        0.6
     560.2      559.7      556.0      551.5      547.2      541.4      531.3      518.5      505.2      491.4
     476.8      460.4      442.9      425.2      405.9      385.9      364.8      343.0      320.4      297.9
     274.6      251.4      229.3      206.9      184.6      163.5      144.8      127.7      111.8       96.9
      82.6       68.4       54.1       38.7       21.7        7.2        0.8
     560.2      558.8      559.5      560.7      556.7      551.9      546.9      542.0      536.7      529.9
     521.8      511.9      500.0      486.7      472.1      456.2      439.5      421.8      404.1      386.1
     366.3      345.9      324.7      301.8      279.0      256.9      236.1      215.9      197.1      179.1
     160.5      139.9      115.7       82.3       43.8       15.3        2.3
     560.2      558.6      562.8      563.7      563.4      564.3      567.2      569.1      569.8      567.5
     565.1      561.1      555.1      548.8      540.2      530.0      518.4      506.2      492.3      475.5
     455.0      430.7      405.3      381.2      361.8      345.3      324.4      302.3      282.6      263.1
     241.1      215.0      177.0      118.6       62.8       24.6        4.4
     560.2      558.3      563.5      564.6      566.4      570.6      576.3      581.4      583.7      585.0
     586.7      585.8      584.9      581.7      575.7      568.3      558.9      547.0      532.7      514.7
     493.3      469.3      444.1      424.1      410.4      396.3      374.7      351.0      330.3      309.7
     286.6      258.2      212.4      143.1       85.3       36.7        7.3
