IESNA:LM-63-1995
[TEST]     23308
[MANUFAC]COOPER LIGHTING - CORELITE
[LUMCAT]R2-WL-3N5-24                                                                    
[LUMINAIRE]WITH WHITE INTERIOR AND FROSTED LINEAR PRISMATIC PLASTIC LENS                   
[LAMP]THREE SYLVANIA 28 WATT T5 LAMPS                                                 
[LAMPCAT]FP28/841. LUMEN RATING = 2600 LMS.                                              
[OTHER]TWO UNIVERSAL B228PUNV-C BALLASTS OPERATING AT 120 VAC AND 85 WATTS             
[OTHER]LAMP COLD SPOT TEMPERATURE - 62.8 & 63.5 & 64.3 C
[OTHER]PAINT REFLECTIVITY - FIXTURE 92% TRAY 93%
TILT=NONE
3
      2600
1
37
5
1
1
  1.95
  3.92
  0.00
1
1
   85.0000
0 2.5 5 7.5 10 12.5 15 17.5 20 22.5 25 27.5 30 32.5 35 37.5
40 42.5 45 47.5 50 52.5 55 57.5 60 62.5 65 67.5 70 72.5 75
77.5 80 82.5 85 87.5 90
0 22.5 45 67.5 90
    1741.8     1716.5     1710.3     1699.8     1685.0     1665.8     1642.4     1614.7     1582.9     1547.1
    1507.3     1463.9     1417.4     1367.6     1315.2     1260.8     1204.0     1145.5     1084.9     1022.8
     959.8      895.6      830.8      765.9      701.0      636.4      572.3      508.8      445.6      383.3
     322.5      262.9      205.1      149.5       96.4       45.4       11.4
    1741.8     1728.0     1722.4     1713.1     1699.8     1682.5     1660.7     1635.2     1605.5     1572.4
    1535.5     1494.9     1451.4     1404.6     1354.8     1302.9     1247.8     1190.9     1131.9     1072.5
    1010.3      947.0      883.2      819.5      755.5      691.5      628.0      566.1      504.4      444.8
     389.6      339.3      288.3      229.4      157.2       77.7       22.3
    1741.8     1748.6     1744.2     1737.2     1727.6     1714.8     1698.4     1678.3     1654.7     1628.9
    1599.3     1565.5     1529.5     1490.0     1447.5     1402.9     1354.8     1303.0     1249.9     1195.4
    1140.1     1082.4     1024.7      965.9      906.4      847.3      791.4      738.9      689.6      639.0
     584.3      519.5      438.9      333.7      216.4      101.5       30.4
    1741.8     1752.5     1749.8     1744.9     1738.8     1730.4     1718.8     1703.4     1687.5     1667.8
    1646.1     1619.9     1591.4     1559.4     1524.9     1488.0     1448.3     1406.5     1362.9     1316.7
    1268.5     1218.5     1166.4     1114.8     1065.0     1017.2      971.3      924.3      875.8      820.7
     754.1      671.1      556.2      414.7      265.1      126.2       37.9
    1741.8     1754.5     1751.6     1748.9     1744.2     1736.6     1727.0     1716.3     1702.0     1685.3
    1666.2     1644.6     1618.4     1589.5     1558.0     1524.3     1488.8     1451.2     1410.6     1367.8
    1322.8     1275.3     1226.9     1178.7     1132.2     1086.9     1042.1      996.4      946.0      887.1
     815.9      722.1      587.9      431.4      277.7      132.3       39.7
