IESNA:LM-63-1995
[TEST]     23295
[MANUFAC]COOPER LIGHTING - CORELITE                                     
[LUMCAT]R1-WB-2N5-22                                                                    
[LUMINAIRE]WITH WHITE INTERIOR AND CLEAR LINEAR PRISMATIC PLASTIC LENS WITH WHITE BAFFLE   
[LAMP]TWO SYLVANIA 14 WATT T5 LAMPS                                                   
[LAMPCAT]FP14/841. LUMEN RATING = 1200 LMS.                                              
[OTHER]ONE UNIVERSAL B228PUNV-C BALLAST OPERATING AT 120 VAC AND 33 WATTS              
[OTHER]LAMP COLD SPOT TEMPERATURE - 44.5 & 41.7 C
[OTHER]PAINT REFLECTIVITY - FIXTURE 93% TRAY 93%
TILT=NONE
2
      1200
1
37
5
1
1
  1.95
  1.91
  0.00
1
1
   33.0000
0 2.5 5 7.5 10 12.5 15 17.5 20 22.5 25 27.5 30 32.5 35 37.5
40 42.5 45 47.5 50 52.5 55 57.5 60 62.5 65 67.5 70 72.5 75
77.5 80 82.5 85 87.5 90
0 22.5 45 67.5 90
     589.7      589.1      584.5      577.2      567.7      556.1      542.6      527.3      510.4      492.2
     472.9      452.5      430.8      408.4      385.8      362.9      339.6      316.1      292.5      269.0
     245.2      221.8      198.8      176.1      155.4      137.8      121.7      105.7       89.9       74.8
      59.8       45.5       32.5       21.5       12.3        4.6        0.4
     589.7      590.1      587.4      583.0      576.3      567.6      556.5      544.1      529.4      513.6
     496.3      477.7      458.6      439.5      419.4      398.0      375.2      351.3      327.5      303.6
     278.9      254.5      231.1      207.7      184.1      161.5      141.9      124.6      108.7       94.7
      81.8       70.0       58.0       42.8       24.3        8.0        0.8
     589.7      591.4      592.4      591.7      589.8      585.4      578.1      569.9      563.3      556.7
     547.2      533.7      519.1      503.8      487.6      470.4      452.0      432.1      413.1      395.0
     375.2      355.1      334.6      313.1      290.3      267.0      245.6      227.6      212.0      197.4
     181.1      159.8      132.5       94.5       50.8       17.8        3.1
     589.7      591.0      594.1      597.4      598.7      597.5      598.7      600.8      599.7      594.6
     589.2      582.8      574.6      565.2      554.9      542.7      530.3      518.8      506.4      491.1
     472.6      451.5      428.5      403.8      377.8      353.1      331.9      314.8      299.4      281.6
     258.3      228.7      186.5      124.9       66.4       24.0        5.3
     589.7      590.3      594.4      599.1      601.5      603.4      609.0      613.4      613.3      611.7
     610.8      607.3      603.1      598.1      591.1      582.1      573.9      564.0      550.9      534.1
     515.9      495.4      471.0      444.0      416.0      389.7      368.1      350.0      333.1      311.9
     285.1      251.6      198.8      130.7       73.0       25.4        5.9
