IESNA:LM-63-1995
[TEST]     23297
[MANUFAC]COOPER LIGHTING - CORELITE                                 
[LUMCAT]R1-WB-2N5-24                                                                    
[LUMINAIRE]WITH WHITE INTERIOR AND CLEAR LINEAR PRISMATIC PLASTIC LENS WITH WHITE BAFLE    
[LAMP]TWO SYLVANIA 28 WATT T5 LAMPS                                                   
[LAMPCAT]FP28/841. LUMEN RATING = 2600 LMS.                                              
[OTHER]ONE UNIVERSAL B228PUNV-C BALLAST OPERATING AT 120 VAC AND 63 WATTS              
[OTHER]LAMP COLD SPOT TEMPERATURE - 47.8 & 48.9 C
[OTHER]PAINT REFLECTIVITY - FIXTURE 91% TRAY 94%
TILT=NONE
2
      2600
1
37
5
1
1
  1.95
  3.92
  0.00
1
1
   63.0000
0 2.5 5 7.5 10 12.5 15 17.5 20 22.5 25 27.5 30 32.5 35 37.5
40 42.5 45 47.5 50 52.5 55 57.5 60 62.5 65 67.5 70 72.5 75
77.5 80 82.5 85 87.5 90
0 22.5 45 67.5 90
    1209.9     1193.0     1187.0     1176.6     1161.4     1141.7     1117.7     1089.4     1058.1     1023.9
     986.5      946.2      904.1      860.4      815.2      769.9      724.1      677.5      630.0      581.7
     532.6      483.4      434.5      387.2      343.9      304.5      268.2      233.9      199.7      164.9
     131.1       99.6       71.0       46.1       25.7       10.5        1.4
    1209.9     1201.1     1196.1     1188.0     1176.0     1160.8     1140.2     1115.3     1087.5     1057.9
    1025.7      991.1      953.4      912.1      870.1      827.0      782.0      736.6      690.8      644.5
     597.7      550.0      501.6      453.3      407.1      363.3      322.9      286.8      253.7      223.7
     198.5      179.0      162.1      137.9       90.9       34.3        4.2
    1209.9     1216.3     1214.7     1212.7     1206.1     1196.9     1186.4     1172.7     1154.3     1134.9
    1111.9     1085.9     1058.2     1028.1      996.6      963.6      929.5      893.1      857.4      820.2
     782.1      741.3      696.5      650.7      605.2      561.7      523.3      492.7      469.2      445.2
     417.9      381.5      326.9      240.5      137.0       54.5       11.2
    1209.9     1218.5     1221.0     1221.7     1221.6     1222.3     1219.8     1213.2     1207.8     1198.7
    1186.1     1172.5     1158.3     1141.4     1122.7     1102.8     1081.8     1060.0     1036.4     1009.1
     974.6      936.2      890.7      841.3      795.0      755.1      718.8      687.5      656.5      619.9
     574.6      513.0      422.8      294.1      163.4       67.2       15.0
    1209.9     1219.8     1223.3     1225.8     1228.8     1232.3     1232.0     1232.1     1230.9     1224.8
    1219.3     1213.6     1205.7     1195.0     1183.6     1172.8     1159.9     1144.5     1125.8     1097.4
    1063.1     1017.8      966.0      918.3      872.4      827.5      789.6      756.0      717.1      672.1
     620.1      548.8      439.9      291.7      168.9       70.8       15.7
