IESNA:LM-63-1995
[TEST]     23294
[MANUFAC]COOPER LIGHTING - CORELITE                                                                    
[LUMCAT]R1-WB-2N5-14                                                                    
[LUMINAIRE]WITH WHITE INTERIOR AND CLEAR LINEAR PRISMATIC PLASTIC LENS WITH WHITE BAFFLE   
[LAMP]TWO SYLVANIA 28 WATT T5 LAMPS                                                   
[LAMPCAT]FP28/841. LUMEN RATING = 2600 LMS.                                              
[OTHER]ONE UNIVERSAL B228PUNV-C BALLAST OPERATING AT 120 VAC AND 61 WATTS              
[OTHER]LAMP COLD SPOT TEMPERATURE - 49.3 & 49.5 C
[OTHER]PAINT REFLECTIVITY - FIXTURE 91% TRAY 95%
TILT=NONE
2
      2600
1
37
5
1
1
  0.92
  3.92
  0.00
1
1
   61.0000
0 2.5 5 7.5 10 12.5 15 17.5 20 22.5 25 27.5 30 32.5 35 37.5
40 42.5 45 47.5 50 52.5 55 57.5 60 62.5 65 67.5 70 72.5 75
77.5 80 82.5 85 87.5 90
0 22.5 45 67.5 90
    1373.6     1353.2     1346.1     1333.9     1316.5     1294.2     1267.2     1235.8     1200.8     1162.9
    1121.8     1078.1     1031.8      983.8      934.2      884.1      833.3      781.7      729.4      676.3
     622.5      568.4      514.4      462.3      412.8      367.3      325.3      285.2      244.4      203.3
     162.8      124.4       88.8       56.4       29.1        9.8        1.4
    1373.6     1362.4     1355.4     1344.2     1329.7     1310.5     1286.3     1258.6     1229.0     1197.2
    1162.1     1123.0     1080.4     1036.3      990.3      942.5      893.2      842.9      791.8      739.9
     686.3      631.3      575.6      520.0      465.4      413.5      365.3      321.1      279.5      238.7
     199.4      159.6      116.9       74.5       39.1       15.1        2.8
    1373.6     1379.0     1375.0     1369.7     1361.8     1353.1     1340.8     1324.1     1303.4     1281.2
    1253.2     1223.7     1190.8     1156.8     1120.0     1081.1     1039.1      995.0      950.9      904.6
     855.6      803.3      747.8      691.5      633.8      576.7      522.3      468.0      409.8      345.3
     277.7      215.5      158.9      110.9       70.3       34.5        8.6
    1373.6     1382.3     1381.6     1381.2     1382.7     1381.8     1377.5     1369.1     1359.3     1346.8
    1332.3     1315.1     1294.7     1271.3     1245.1     1216.5     1185.7     1152.7     1115.5     1072.7
    1024.2      970.1      910.6      847.0      781.9      713.3      639.8      556.3      470.8      390.6
     316.8      245.3      185.2      130.3       79.8       36.1        9.3
    1373.6     1382.7     1383.0     1385.8     1390.2     1392.0     1391.0     1387.9     1383.3     1376.1
    1368.0     1357.7     1344.0     1326.3     1307.1     1287.0     1263.0     1234.2     1198.3     1154.6
    1104.2     1044.8      979.0      910.5      839.2      763.1      673.4      581.6      491.0      409.7
     329.1      256.2      193.1      135.1       82.3       37.9       10.7
