IESNA:LM-63-1995
[TEST]     23307
[MANUFAC]COOPER LIGHTING - CORELITE                                      
[LUMCAT]R2-WB-1N5-24                                                                    
[LUMINAIRE]WITH WHITE INTERIOR AND CLEAR LINEAR PRISMATIC PLASTIC LENS WITH WHITE BAFFLE   
[LAMP]ONE SYLVANIA 28 WATT T5 LAMP                                                    
[LAMPCAT]FP28/841. LUMEN RATING = 2600 LMS.                                              
[OTHER]ONE UNIVERSAL B228PUNV-C BALLAST OPERATING AT 120 VAC AND 33 WATTS              
[OTHER]LAMP COLD SPOT TEMPERATURE - 46.9 C
[OTHER]PAINT REFLECTIVITY - FIXTURE 92% TRAY 93%
TILT=NONE
1
      2600
1
37
5
1
1
  1.95
  3.92
  0.00
1
1
   33.0000
0 2.5 5 7.5 10 12.5 15 17.5 20 22.5 25 27.5 30 32.5 35 37.5
40 42.5 45 47.5 50 52.5 55 57.5 60 62.5 65 67.5 70 72.5 75
77.5 80 82.5 85 87.5 90
0 22.5 45 67.5 90
     588.0      579.4      577.6      574.4      569.4      562.4      553.4      542.2      528.8      513.4
     496.2      477.7      458.2      437.9      416.6      395.0      372.8      349.8      326.2      302.0
     277.6      253.7      230.7      208.8      188.4      169.1      149.8      130.8      111.8       92.9
      74.3       56.4       40.1       25.7       14.2        5.6        1.0
     588.0      584.0      583.6      581.7      578.2      573.3      566.1      557.5      547.2      534.6
     521.3      505.7      488.2      469.5      448.8      426.9      404.1      380.8      357.4      334.2
     310.2      286.0      262.1      238.5      215.7      193.9      173.0      152.8      133.9      116.3
     100.8       88.7       79.5       67.0       44.1       17.8        3.0
     588.0      591.5      592.4      593.4      594.9      596.0      597.2      599.2      600.4      600.1
     597.8      592.9      584.5      572.7      557.4      539.9      520.6      500.1      479.7      459.5
     439.8      420.0      400.2      379.0      355.7      328.8      301.8      278.9      261.8      245.4
     227.9      206.2      173.4      128.2       77.1       32.8        8.3
     588.0      593.3      596.1      600.5      607.7      618.2      634.0      649.9      663.5      667.1
     660.6      646.9      631.4      617.5      603.6      592.0      581.4      570.7      561.0      553.7
     547.6      540.1      534.2      527.3      509.9      484.7      463.2      445.2      423.5      400.8
     373.7      332.9      284.6      215.4      139.3       74.8       21.2
     588.0      594.2      597.4      603.8      614.1      630.4      650.5      672.3      683.6      682.0
     670.6      658.0      647.0      637.1      629.3      623.7      618.4      613.2      611.9      612.6
     612.9      615.2      622.7      620.3      599.8      574.1      551.5      529.4      504.6      476.5
     443.1      397.9      337.2      259.4      179.3       97.5       29.5
