IESNA:LM-63-1995
[TEST]     23390
[MANUFAC]COOPER LIGHTING - CORELITE                                      
[LUMCAT]R2-WB-1N5-14                                                                    
[LUMINAIRE]WITH WHITE INTERIOR AND CLEAR LINEAR PRISMATIC PLASTIC LENS WITH WHITE BAFFLE   
[LAMP]ONE SYLVANIA 28 WATT T5 LAMP                                                    
[LAMPCAT]FP28/841. LUMEN RATING = 2600 LMS.                                              
[OTHER]ONE UNIVERSAL B228PUNV-C BALLAST OPERATING AT 120 VAC AND 34 WATTS              
[OTHER]LAMP COLD SPOT TEMPERATURE - 41.9 C
[OTHER]PAINT REFLECTIVITY - FIXTURE 79% TRAY 95%
TILT=NONE
1
      2600
1
37
5
1
1
  0.92
  3.92
  0.00
1
1
   34.0000
0 2.5 5 7.5 10 12.5 15 17.5 20 22.5 25 27.5 30 32.5 35 37.5
40 42.5 45 47.5 50 52.5 55 57.5 60 62.5 65 67.5 70 72.5 75
77.5 80 82.5 85 87.5 90
0 22.5 45 67.5 90
     645.4      634.9      632.8      629.2      623.4      615.8      606.0      593.8      579.4      563.1
     545.0      525.5      505.0      483.6      461.7      439.1      415.6      391.1      365.9      339.9
     313.8      287.6      262.2      238.1      215.4      193.7      172.2      150.8      129.6      108.2
      87.2       66.9       47.8       30.6       16.0        5.2        0.4
     645.4      640.7      639.8      638.0      633.9      627.9      620.4      610.6      599.4      585.7
     570.6      554.2      535.7      515.7      494.4      470.8      446.2      421.3      396.1      370.3
     344.2      317.5      290.9      264.6      238.6      213.6      189.8      167.1      145.1      123.7
     103.0       81.5       60.3       39.4       21.6        8.5        1.3
     645.4      649.2      650.3      651.1      652.4      652.3      652.5      652.7      653.0      652.5
     649.9      645.1      636.2      624.4      608.4      589.6      567.4      542.7      518.3      494.0
     470.0      447.6      428.2      407.2      378.5      342.4      304.9      269.2      237.4      201.0
     162.7      126.9       95.2       67.5       43.9       21.1        4.6
     645.4      652.1      654.9      659.5      666.0      675.9      691.3      709.2      726.6      731.2
     724.2      708.8      690.6      671.8      652.4      635.5      620.3      605.9      592.2      583.0
     581.4      583.3      576.7      554.4      517.9      475.8      436.4      390.4      342.2      297.6
     255.0      213.9      176.2      139.4       97.7       50.4       12.3
     645.4      653.1      656.4      663.4      673.2      689.0      711.6      737.6      751.3      748.6
     735.3      719.2      704.3      689.7      676.7      667.0      657.7      649.4      646.1      651.9
     666.3      679.2      674.8      648.7      605.8      559.9      508.9      456.4      407.8      361.9
     315.5      270.6      229.4      184.9      127.8       66.5       16.7
