IESNA:LM-63-1995
[TEST]     23303
[MANUFAC]COOPER LIGHTING - CORELITE                                      
[LUMCAT]R2-WB-3N5-22                                                                    
[LUMINAIRE]WITH WHITE INTERIOR AND CLEAR LINEAR PRISMATIC PLASTIC LENS WITH WHITE BAFFLE   
[LAMP]THREE SYLVANIA 14 WATT T5 LAMPS                                                 
[LAMPCAT]FP14/841. LUMEN RATING = 1200 LMS.                                              
[OTHER]TWO UNIVERSAL B228PUNV-C BALLASTS OPERATING AT 120 VAC AND 47 WATTS             
[OTHER]LAMP COLD SPOT TEMPERATURE - 52.7 & 52.8 & 52.3 C
[OTHER]PAINT REFLECTIVITY - FIXTURE 92% TRAY 84%
TILT=NONE
3
      1200
1
37
5
1
1
  1.95
  1.91
  0.00
1
1
   47.0000
0 2.5 5 7.5 10 12.5 15 17.5 20 22.5 25 27.5 30 32.5 35 37.5
40 42.5 45 47.5 50 52.5 55 57.5 60 62.5 65 67.5 70 72.5 75
77.5 80 82.5 85 87.5 90
0 22.5 45 67.5 90
     812.4      811.8      806.4      797.8      785.7      770.6      752.1      731.0      707.2      681.6
     654.0      624.5      593.3      561.1      528.6      497.1      465.4      433.6      401.1      368.7
     335.7      303.7      272.8      243.9      217.7      193.4      170.7      148.1      125.9      104.3
      83.1       62.3       43.9       27.7       14.6        4.6        0.1
     812.4      812.8      807.9      801.8      795.6      786.5      771.7      754.0      735.3      715.6
     694.2      670.3      645.7      619.8      591.8      561.7      530.1      497.0      462.8      428.6
     393.2      358.5      325.0      291.8      260.0      229.7      203.1      178.5      155.8      134.3
     113.7       93.4       73.5       52.5       29.3        8.7        0.2
     812.4      810.6      812.2      815.5      812.8      810.2      807.3      804.5      800.7      793.6
     783.1      768.0      749.0      727.5      703.2      677.1      650.6      623.0      595.6      568.1
     539.1      509.5      479.2      447.9      416.7      384.7      351.1      318.8      288.8      259.8
     230.9      199.9      165.5      120.5       66.7       25.5        3.1
     812.4      809.8      817.5      822.9      829.2      837.4      848.0      854.7      856.0      850.1
     842.7      832.2      819.8      807.2      792.5      775.6      758.1      740.5      721.2      698.3
     672.6      645.0      616.9      590.3      563.6      530.7      493.5      458.3      427.0      395.5
     360.4      320.6      268.4      187.7      110.9       53.1        7.5
     812.4      810.0      819.3      826.0      836.3      849.5      864.0      873.1      874.1      871.7
     869.0      862.6      857.3      849.8      838.7      827.5      814.9      799.4      781.3      760.1
     737.3      713.3      690.1      670.5      646.0      610.5      571.4      534.6      502.1      467.3
     428.9      385.2      323.9      227.3      148.7       77.3       12.9
