IESNA:LM-63-1995
[TEST]     23392
[MANUFAC]COOPER LIGHTING - CORELITE                                      
[LUMCAT]R2-Wb-3N5-14                                                                    
[LUMINAIRE]WITH WHITE INTERIOR AND CLEAR LINEAR PRISMATIC PLASTIC LENS WITH WHITE BAFFLE   
[LAMP]THREE SYLVANIA 28 WATT T5 LAMPS                                                 
[LAMPCAT]FP28/841. LUMEN RATING = 2600 LMS.                                              
[OTHER]TWO UNIVERSAL B228PUNV-C BALLASTS OPERATING AT 120 VAC AND 86 WATTS             
[OTHER]LAMP COLD SPOT TEMPERATURE - 62.4 & 60.1 & 61.0 C
[OTHER]PAINT REFLECTIVITY - FIXTURE 79% TRAY 95%
TILT=NONE
3
      2600
1
37
5
1
1
  0.92
  3.92
  0.00
1
1
   86.0000
0 2.5 5 7.5 10 12.5 15 17.5 20 22.5 25 27.5 30 32.5 35 37.5
40 42.5 45 47.5 50 52.5 55 57.5 60 62.5 65 67.5 70 72.5 75
77.5 80 82.5 85 87.5 90
0 22.5 45 67.5 90
    1761.0     1733.0     1726.5     1715.3     1698.3     1674.9     1645.0     1608.8     1566.5     1518.2
    1464.6     1407.7     1347.5     1284.4     1219.5     1153.4     1086.1     1017.4      948.0      877.3
     807.0      736.6      667.6      601.8      540.3      483.0      428.4      375.1      321.2      267.0
     213.4      162.3      115.1       73.0       38.2       13.5        2.2
    1761.0     1747.6     1745.1     1737.9     1725.4     1707.2     1682.6     1651.9     1616.9     1574.9
    1529.2     1479.5     1425.7     1367.9     1307.5     1243.4     1176.7     1108.6     1039.5      970.2
     900.4      827.6      753.6      680.1      608.7      541.5      478.2      419.0      362.1      307.6
     255.1      202.1      146.2       93.7       52.1       21.5        4.1
    1761.0     1771.1     1773.5     1774.6     1774.6     1770.8     1764.5     1756.5     1744.6     1728.7
    1707.0     1680.7     1646.0     1606.8     1560.4     1510.3     1453.8     1391.2     1324.9     1257.9
    1189.1     1115.6     1042.4      968.1      891.7      810.0      727.5      645.5      560.5      468.1
     378.4      296.3      221.7      158.5       99.6       45.5        9.6
    1761.0     1778.3     1786.4     1796.5     1809.2     1825.7     1845.5     1863.1     1879.5     1881.3
    1868.6     1840.9     1810.2     1776.1     1738.4     1697.2     1654.2     1608.2     1559.3     1505.2
    1449.2     1389.6     1327.4     1255.7     1173.1     1078.2      971.9      858.2      747.0      638.9
     536.9      438.6      345.6      253.8      163.1       74.1       15.7
    1761.0     1781.2     1790.5     1807.1     1826.5     1853.2     1883.5     1915.0     1933.7     1935.5
    1920.0     1901.4     1880.7     1858.8     1830.9     1802.8     1772.3     1735.8     1696.1     1648.1
    1596.7     1546.6     1488.6     1420.2     1331.3     1223.7     1103.5      982.2      865.4      750.8
     639.4      533.3      427.1      318.9      205.0       95.5       22.1
