IESNA:LM-63-1995
[TEST]     23388
[MANUFAC]COOPER LIGHTING - CORELITE                                      
[LUMCAT]R2-WB-2N5-14                                                                    
[LUMINAIRE]WITH WHITE INTERIOR AND CLEAR LINEAR PRISMATIC PLASTIC LENS WITH WHITE BAFFLE   
[LAMP]TWO SYLVANIA 28 WATT T5 LAMPS                                                   
[LAMPCAT]FP28/841. LUMEN RATING = 2600 LMS.                                              
[OTHER]ONE UNIVERSAL B228PUNV-C BALLAST OPERATING AT 120 VAC AND 60 WATTS              
[OTHER]LAMP COLD SPOT TEMPERATURE - 56.3 & 54.7 C
[OTHER]PAINT REFLECTIVITY - FIXTURE 79% TRAY 95%
TILT=NONE
2
      2600
1
37
5
1
1
  0.92
  3.92
  0.00
1
1
   60.0000
0 2.5 5 7.5 10 12.5 15 17.5 20 22.5 25 27.5 30 32.5 35 37.5
40 42.5 45 47.5 50 52.5 55 57.5 60 62.5 65 67.5 70 72.5 75
77.5 80 82.5 85 87.5 90
0 22.5 45 67.5 90
    1326.5     1305.1     1299.6     1290.3     1276.3     1257.6     1234.1     1206.1     1174.0     1138.1
    1098.6     1056.4     1011.8      965.1      916.4      867.1      817.2      766.5      715.9      665.0
     614.1      563.3      512.6      463.6      416.6      372.3      330.0      288.9      247.4      205.5
     164.7      125.6       89.6       57.3       29.9       10.1        1.2
    1326.5     1315.5     1312.0     1305.7     1294.6     1278.3     1258.3     1235.1     1207.3     1175.3
    1140.9     1103.7     1064.6     1023.8      979.9      932.9      884.5      834.9      785.5      735.7
     684.4      630.3      574.7      518.9      464.1      412.7      364.9      320.2      277.6      236.9
     196.6      154.2      111.9       70.0       37.0       14.8        2.4
    1326.5     1333.5     1334.1     1331.5     1329.2     1322.5     1311.2     1298.5     1283.4     1265.0
    1242.2     1216.8     1187.2     1153.8     1118.2     1080.8     1040.5      994.8      947.7      900.0
     850.4      797.5      741.8      684.5      626.4      568.8      511.5      453.6      394.3      326.9
     261.0      200.9      147.6      103.0       64.0       26.7        4.6
    1326.5     1339.0     1342.1     1346.8     1350.3     1351.7     1351.9     1350.1     1347.1     1341.2
    1331.0     1314.3     1295.6     1274.8     1251.2     1224.1     1192.3     1155.9     1119.0     1076.7
    1026.0      968.1      904.8      845.1      787.3      722.2      648.1      561.3      479.2      401.5
     321.3      253.2      187.9      126.5       73.5       31.7        6.3
    1326.5     1341.6     1345.4     1354.2     1359.9     1365.1     1370.5     1375.1     1378.2     1377.8
    1372.1     1363.3     1352.5     1340.1     1323.1     1301.8     1276.2     1246.9     1211.4     1164.8
    1107.5     1042.0      981.5      929.8      874.0      804.4      713.6      621.7      537.8      450.6
     367.4      290.5      217.6      148.1       90.3       42.1       10.1
