IESNA:LM-63-2002
[TEST]23493     
[TESTLAB]LIGHTING SCIENCES, INC.                            
[ISSUEDATE] 3/ 5/2008
[MANUFAC]COOPER LIGHTING - CORELITE
[LUMCAT]R2-WP-1N5-1C-UNV-22-T1                                                          
[LUMINAIRE]WITH WHITE INTERIOR AND FROSTED LINEAR PRISMATIC PLASTIC LENS WITH ROUND PERF   
[LAMP]ONE SYLVANIA 14 WATT T5 LAMP                                                    
[LAMPCAT]FP14/841. LUMEN RATING = 1200 LMS.                                              
[OTHER]ONE UNIVERSAL B228PUNV-C BALLAST OPERATING AT 120 VAC AND 17 WATTS              
[OTHER]LAMP COLD SPOT TEMPERATURE - 38.3 C
[OTHER]PAINT REFLECTIVITY - FIXTURE 92% TRAY 84%
TILT=NONE
1
      1200
1
37
5
1
1
  1.95
  1.91
  0.00
1
1
   17.0000
0 2.5 5 7.5 10 12.5 15 17.5 20 22.5 25 27.5 30 32.5 35 37.5
40 42.5 45 47.5 50 52.5 55 57.5 60 62.5 65 67.5 70 72.5 75
77.5 80 82.5 85 87.5 90
0 22.5 45 67.5 90
     231.7      231.9      231.0      229.4      227.1      224.5      221.0      217.1      212.6      207.6
     202.2      196.3      189.9      182.9      175.7      168.3      160.4      152.3      144.0      135.6
     126.9      117.8      108.8       99.5       90.2       80.9       71.7       62.4       53.1       43.7
      34.3       25.4       17.4       10.7        5.3        1.5        0.0
     231.7      232.4      231.6      230.1      228.1      225.6      222.3      218.7      214.4      209.7
     204.7      199.0      192.8      186.3      179.4      172.1      164.8      156.9      148.9      140.5
     132.1      123.1      114.3      105.4       96.4       87.3       78.1       69.0       59.7       50.4
      41.4       32.7       24.3       16.4        8.7        2.8        0.2
     231.7      231.4      230.7      229.5      227.8      225.9      223.4      220.3      216.8      213.0
     208.9      204.2      199.1      193.5      187.6      181.4      175.1      168.1      161.1      153.6
     146.0      138.0      130.0      121.6      113.1      104.7       95.9       86.9       77.9       68.8
      59.8       50.5       40.2       27.6       15.2        5.6        1.0
     231.7      230.6      230.0      229.2      228.3      226.6      224.9      222.5      220.0      217.0
     213.9      210.1      206.1      201.7      196.9      191.9      186.6      180.7      174.9      168.7
     162.0      155.1      147.9      140.4      132.6      124.5      116.1      107.6       98.8       89.7
      80.1       69.1       54.8       37.7       22.3       10.1        2.2
     231.7      230.0      229.4      228.9      228.1      226.7      225.2      223.4      221.0      218.5
     215.8      212.6      209.1      205.1      200.8      196.4      191.5      186.5      181.0      175.2
     169.1      162.6      155.6      148.4      140.9      132.9      124.7      116.3      107.6       98.3
      88.3       76.5       60.1       41.1       25.0       12.3        2.3
