IESNA:LM-63-2002
[TEST]23500     
[TESTLAB]LIGHTING SCIENCES, INC.                            
[ISSUEDATE] 3/ 4/2008
[MANUFAC]COOPER LIGHTING - CORELITE
[LUMCAT]R2-WP-3N5-1C-UNV-24-T1                                                          
[LUMINAIRE]WITH WHITE INTERIOR AND FROSTED LINEAR PRISMATIC PLASTIC LENS WITH ROUND PERF   
[LAMP]THREE SYLVANIA 28 WATT T5 LAMPS                                                 
[LAMPCAT]FP28/841. LUMEN RATING = 2600 LMS.                                              
[OTHER]TWO UNIVERSAL B228PUNV-C BALLASTS OPERATING AT 120 VAC AND 83 WATTS             
[OTHER]LAMP COLD SPOT TEMPERATURE - 58.9 & 57.3 & 57.7 C
[OTHER]PAINT REFLECTIVITY - FIXTURE 92% TRAY 93%
TILT=NONE
3
      2600
1
37
5
1
1
  1.95
  3.92
  0.00
1
1
   83.0000
0 2.5 5 7.5 10 12.5 15 17.5 20 22.5 25 27.5 30 32.5 35 37.5
40 42.5 45 47.5 50 52.5 55 57.5 60 62.5 65 67.5 70 72.5 75
77.5 80 82.5 85 87.5 90
0 22.5 45 67.5 90
    1436.7     1416.0     1410.1     1401.0     1388.2     1371.7     1351.3     1327.5     1300.8     1271.0
    1237.6     1201.3     1162.2     1120.6     1077.0     1031.2      983.6      934.6      884.0      832.1
     778.8      724.8      669.4      614.1      557.9      501.5      444.8      387.6      330.4      273.7
     217.5      163.6      113.4       72.9       40.4       14.8        2.0
    1436.7     1426.2     1421.0     1412.6     1400.8     1385.4     1366.2     1343.9     1318.4     1290.1
    1258.7     1224.2     1186.9     1146.9     1104.8     1060.4     1014.3      966.5      917.2      867.1
     814.7      761.2      707.5      653.4      598.4      543.6      488.9      435.5      382.5      331.1
     281.7      238.2      201.7      159.9      102.8       39.5        6.2
    1436.7     1441.8     1437.4     1430.4     1421.7     1410.1     1394.4     1376.2     1354.8     1331.5
    1304.8     1275.0     1243.0     1208.4     1171.4     1132.1     1090.8     1046.3     1000.9      954.2
     906.8      857.8      810.0      761.5      713.2      663.4      615.0      568.8      528.8      496.1
     461.5      416.6      353.0      265.0      152.9       60.8       14.8
    1436.7     1445.3     1442.2     1437.0     1430.9     1422.1     1410.1     1394.8     1379.3     1359.9
    1338.8     1313.8     1286.8     1256.8     1224.8     1191.0     1154.5     1116.8     1077.9     1038.1
     997.6      956.0      912.8      869.4      826.1      784.7      749.5      721.2      693.1      658.9
     611.5      546.2      454.1      319.5      171.2       81.5       22.8
    1436.7     1445.8     1442.2     1439.3     1434.2     1426.1     1415.5     1404.1     1389.3     1372.1
    1352.6     1330.3     1304.5     1276.5     1246.5     1215.3     1182.2     1147.1     1111.1     1073.9
    1035.2      995.4      955.0      914.1      874.3      838.2      809.0      783.3      754.3      713.9
     660.6      585.9      484.0      328.4      181.7       93.6       27.0
