IESNA:LM-63-2002
[TEST]23496     
[TESTLAB]LIGHTING SCIENCES, INC.                            
[ISSUEDATE] 3/ 5/2008
[MANUFAC]COOPER LIGHTING - CORELITE
[LUMCAT]R2-WP-3N5-1C-UNV-22-T1                                                          
[LUMINAIRE]WITH WHITE INTERIOR AND FROSTED LINEAR PRISMATIC PLASTIC LENS WITH ROUND PERF   
[LAMP]THREE SYLVANIA 14 WATT T5 LAMPS                                                 
[LAMPCAT]FP14/841. LUMEN RATING = 1200 LMS.                                              
[OTHER]TWO UNIVERSAL B228PUNV-C BALLASTS OPERATING AT 120 VAC AND 45 WATTS             
[OTHER]LAMP COLD SPOT TEMPERATURE - 56.2 & 51.7 & 56.6 C
[OTHER]PAINT REFLECTIVITY - FIXTURE 92% TRAY 84%
[OTHER]PRORATED FROM T23496
TILT=NONE
3 1750 1.46 37 5 1 1 1.95 1.91 0
1 1 45
0 2.5 5 7.5 10 12.5 15 17.5 20 22.5 25 27.5 30 32.5 35 37.5 40 42.5 45 47.5 50 52.5 55 57.5 60 62.5 65 67.5 70 72.5 75 77.5 80 82.5 85 87.5 90
0 22.5 45 67.5 90
644.60 643.90 641.20 636.70 630.70 623.30 613.80 602.80 590.20 576.20 560.80 544.00 525.90 506.60 486.50 465.50 443.40 420.90 397.70 374.20 349.60 325.00 299.90 274.90 249.40 224.10 198.70 173.20 147.60 121.90 96.80 72.70 50.80 32.90 18.10 6.50 0.90
644.60 645.10 642.70 638.50 633.10 626.00 617.10 606.70 594.70 581.70 567.20 551.40 534.30 515.90 496.40 476.30 455.30 433.50 411.00 388.30 364.50 339.90 315.80 291.20 266.50 241.70 217.30 193.10 169.20 145.50 122.20 99.50 77.30 54.30 30.80 11.50 2.20
644.60 643.90 641.90 638.60 634.10 628.50 621.20 612.60 602.80 591.60 579.50 565.80 551.20 535.20 518.20 500.50 482.00 462.20 441.90 421.50 400.60 379.20 358.10 336.80 315.50 294.10 272.80 251.00 229.50 208.40 187.00 163.40 134.50 94.10 50.40 18.40 4.00
644.60 642.90 641.20 639.00 635.70 631.40 626.20 619.40 611.60 602.70 592.90 581.60 569.40 555.70 541.20 526.10 510.40 493.90 477.20 460.30 442.70 424.60 406.60 388.20 370.00 351.10 333.00 314.90 297.00 278.10 256.20 227.90 184.40 121.40 63.30 27.00 6.50
644.60 642.10 640.60 638.70 636.10 632.30 628.00 622.00 614.80 607.40 598.30 588.10 576.70 564.20 550.90 537.40 522.80 508.20 492.60 476.60 460.50 444.00 427.00 409.80 392.40 375.10 358.20 341.40 324.20 305.20 282.90 252.90 200.90 129.00 68.50 31.60 7.40
