IESNA:LM-63-2002
[TEST]23493     
[TESTLAB]LIGHTING SCIENCES, INC.                            
[ISSUEDATE] 3/ 5/2008
[MANUFAC]COOPER LIGHTING - CORELITE
[LUMCAT]R2-WP-1N5-1C-UNV-22-T1                                                          
[LUMINAIRE]WITH WHITE INTERIOR AND FROSTED LINEAR PRISMATIC PLASTIC LENS WITH ROUND PERF   
[LAMP]ONE SYLVANIA 14 WATT T5 LAMP                                                    
[LAMPCAT]FP14/841. LUMEN RATING = 1200 LMS.                                              
[OTHER]ONE UNIVERSAL B228PUNV-C BALLAST OPERATING AT 120 VAC AND 17 WATTS              
[OTHER]LAMP COLD SPOT TEMPERATURE - 38.3 C
[OTHER]PAINT REFLECTIVITY - FIXTURE 92% TRAY 84%
[OTHER]PRORATED FROM T23493
TILT=NONE
1 1750 1.46 37 5 1 1 1.95 1.91 0
1 1 17
0 2.5 5 7.5 10 12.5 15 17.5 20 22.5 25 27.5 30 32.5 35 37.5 40 42.5 45 47.5 50 52.5 55 57.5 60 62.5 65 67.5 70 72.5 75 77.5 80 82.5 85 87.5 90
0 22.5 45 67.5 90
231.70 231.90 231.00 229.40 227.10 224.50 221.00 217.10 212.60 207.60 202.20 196.30 189.90 182.90 175.70 168.30 160.40 152.30 144.00 135.60 126.90 117.80 108.80 99.50 90.20 80.90 71.70 62.40 53.10 43.70 34.30 25.40 17.40 10.70 5.30 1.50 0.00
231.70 232.40 231.60 230.10 228.10 225.60 222.30 218.70 214.40 209.70 204.70 199.00 192.80 186.30 179.40 172.10 164.80 156.90 148.90 140.50 132.10 123.10 114.30 105.40 96.40 87.30 78.10 69.00 59.70 50.40 41.40 32.70 24.30 16.40 8.70 2.80 0.20
231.70 231.40 230.70 229.50 227.80 225.90 223.40 220.30 216.80 213.00 208.90 204.20 199.10 193.50 187.60 181.40 175.10 168.10 161.10 153.60 146.00 138.00 130.00 121.60 113.10 104.70 95.90 86.90 77.90 68.80 59.80 50.50 40.20 27.60 15.20 5.60 1.00
231.70 230.60 230.00 229.20 228.30 226.60 224.90 222.50 220.00 217.00 213.90 210.10 206.10 201.70 196.90 191.90 186.60 180.70 174.90 168.70 162.00 155.10 147.90 140.40 132.60 124.50 116.10 107.60 98.80 89.70 80.10 69.10 54.80 37.70 22.30 10.10 2.20
231.70 230.00 229.40 228.90 228.10 226.70 225.20 223.40 221.00 218.50 215.80 212.60 209.10 205.10 200.80 196.40 191.50 186.50 181.00 175.20 169.10 162.60 155.60 148.40 140.90 132.90 124.70 116.30 107.60 98.30 88.30 76.50 60.10 41.10 25.00 12.30 2.30
