IESNA:LM-63-2002
[TEST]23497     
[TESTLAB]LIGHTING SCIENCES, INC.                            
[ISSUEDATE] 3/ 4/2008
[MANUFAC]COOPER LIGHTING - CORELITE
[LUMCAT]R2-WP-1N5-1C-UNV-24-T1                                                          
[LUMINAIRE]WITH WHITE INTERIOR AND FROSTED LINEAR PRISMATIC PLASTIC LENS WITH ROUND PERF   
[LAMP]ONE SYLVANIA 28 WATT T5 LAMP                                                    
[LAMPCAT]FP28/841. LUMEN RATING = 2600 LMS.                                              
[OTHER]ONE UNIVERSAL B228PUNV-C BALLAST OPERATING AT 120 VAC AND 33 WATTS              
[OTHER]LAMP COLD SPOT TEMPERATURE - 42.3 C
[OTHER]PAINT REFLECTIVITY - FIXTURE 92% TRAY 93%
[OTHER]PRORATED FROM T23497
TILT=NONE
1 4450 1.71 37 5 1 1 1.95 3.92 0
1 1 33
0 2.5 5 7.5 10 12.5 15 17.5 20 22.5 25 27.5 30 32.5 35 37.5 40 42.5 45 47.5 50 52.5 55 57.5 60 62.5 65 67.5 70 72.5 75 77.5 80 82.5 85 87.5 90
0 22.5 45 67.5 90
567.10 558.90 556.60 553.10 548.10 541.70 534.00 524.90 514.60 503.00 490.20 476.30 461.20 445.10 428.10 410.20 391.70 372.70 353.00 332.60 311.70 290.40 268.70 246.80 224.70 201.90 179.10 156.50 133.90 111.20 88.60 66.70 46.20 29.70 16.50 5.90 0.60
567.10 563.20 561.20 558.00 553.50 547.60 540.40 531.90 522.20 511.10 499.10 485.90 471.70 456.50 440.40 423.30 405.60 387.00 367.80 348.20 327.50 306.40 285.40 264.10 242.50 221.00 199.10 177.50 156.10 135.30 115.60 98.40 84.80 68.90 44.10 15.80 2.10
567.10 569.10 567.60 564.90 561.70 557.30 551.50 544.90 536.90 528.30 518.40 507.40 495.40 482.40 468.40 453.50 438.10 421.40 404.50 386.80 368.90 350.10 331.60 313.00 294.60 275.60 256.80 238.90 224.40 213.20 200.70 183.20 155.80 115.10 64.50 23.60 5.30
567.10 570.40 569.40 567.50 565.40 562.20 558.00 552.40 546.80 539.80 532.10 523.10 513.30 502.70 491.30 479.30 466.50 453.30 439.80 425.70 411.50 396.90 381.40 365.80 350.20 335.50 324.30 315.60 306.30 293.10 273.80 244.80 203.40 141.70 72.90 34.00 8.00
567.10 570.80 569.60 568.60 566.90 564.10 560.40 556.40 551.20 545.00 538.40 530.60 521.70 511.90 501.60 490.90 479.90 468.30 456.30 443.90 431.10 417.30 403.40 389.10 375.50 364.10 355.80 348.30 338.00 322.50 301.00 266.90 220.90 147.70 78.70 40.40 9.80
