IESNA:LM-63-2002
[TEST]23494     
[TESTLAB]LIGHTING SCIENCES, INC.                            
[ISSUEDATE] 3/ 5/2008
[MANUFAC]COOPER LIGHTING - CORELITE
[LUMCAT]R2-WP-2N5-1C-UNV-22-T1                                                          
[LUMINAIRE]WITH WHITE INTERIOR AND FROSTED LINEAR PRISMATIC PLASTIC LENS WITH ROUND PERF   
[LAMP]TWO SYLVANIA 14 WATT T5 LAMPS                                                   
[LAMPCAT]FP14/841. LUMEN RATING = 1200 LMS.                                              
[OTHER]ONE UNIVERSAL B228PUNV-C BALLAST OPERATING AT 120 VAC AND 32 WATTS              
[OTHER]LAMP COLD SPOT TEMPERATURE - 49.0 & 48.7 C
[OTHER]PAINT REFLECTIVITY - FIXTURE 92% TRAY 84%
[OTHER]PRORATED FROM T23494
TILT=NONE
2 1750 1.46 37 5 1 1 1.95 1.91 0
1 1 32
0 2.5 5 7.5 10 12.5 15 17.5 20 22.5 25 27.5 30 32.5 35 37.5 40 42.5 45 47.5 50 52.5 55 57.5 60 62.5 65 67.5 70 72.5 75 77.5 80 82.5 85 87.5 90
0 22.5 45 67.5 90
489.60 488.70 486.70 483.40 479.00 473.30 466.20 457.80 448.30 437.70 426.10 413.50 399.70 385.10 369.80 354.00 337.40 320.20 302.80 284.90 266.40 247.40 228.30 209.30 190.00 170.70 151.40 131.90 112.30 92.90 74.00 55.80 39.10 25.60 14.00 4.80 0.50
489.60 489.70 487.80 484.80 480.60 475.30 468.50 460.60 451.50 441.60 430.60 418.50 405.40 391.50 376.70 361.40 345.40 328.80 311.80 294.60 276.70 258.00 239.60 221.00 202.20 183.40 164.80 146.20 128.20 110.70 93.50 76.60 60.00 42.70 24.30 8.60 1.20
489.60 489.00 487.60 485.10 481.90 477.60 472.10 465.50 458.00 449.50 440.20 429.90 418.70 406.50 393.50 379.80 365.70 350.60 334.90 319.20 303.00 286.40 270.80 255.40 239.90 224.50 208.70 192.80 177.40 162.60 148.00 131.50 110.20 78.40 41.10 14.10 2.40
489.60 488.80 487.50 485.80 483.30 480.00 475.90 470.60 464.70 457.80 450.40 441.60 432.20 421.70 410.50 398.80 386.40 373.30 360.20 347.70 335.20 321.90 309.10 295.70 282.50 269.60 257.30 245.60 234.40 222.40 208.00 188.10 154.80 100.40 50.10 19.50 3.70
489.60 488.40 487.20 485.70 483.80 481.00 477.60 473.10 467.60 461.80 454.80 447.00 438.20 428.60 418.30 407.50 396.10 384.30 372.90 361.80 350.10 338.10 326.00 313.70 301.90 290.30 279.50 269.30 258.80 246.90 232.10 210.30 168.80 105.80 53.30 23.10 4.60
