IESNA:LM-63-1995
[TEST]236P113
[TESTLAB]METALUX LABORATORIES
[ISSUEDATE]10-04-2002
[MANUFAC]COOPER LIGHTING - METALUX
[LUMCAT]I5-454T5-G-TBW-UNV-EBT2-UPL
[LUMINAIRE]I5 SERIES LUMINAIRE WITH HIGH REFLECTANCE WHITE WIDE
[MORE]DISTRIBUTION REFLECTOR, UPLIGHT, AND THIN WHITE LOUVER
[LAMP]FOUR 54-WATT T5HO - 4400 LUMENS EA
[BALLAST]TWO UNIVERSAL B254PUNV-D
[OTHER]TOTAL INPUT WATTS = 226.0 AT 120.0 VOLTS
TILT=NONE
 4     4400.   1.00  73  5 1  1  0.85  3.83  0.19
1.000 1.000   226.
0 2.5 5 7.5 10 12.5 15 17.5 20 22.5 25 27.5 30 32.5 35 37.5 40 42.5 45 47.5 50
 52.5 55 57.5 60 62.5 65 67.5 70 72.5 75 77.5 80 82.5 85 87.5 90 92.5 95 97.5
 100 102.5 105 107.5 110 112.5 115 117.5 120 122.5 125 127.5 130 132.5 135
 137.5 140 142.5 145 147.5 150 152.5 155 157.5 160 162.5 165 167.5 170 172.5
 175 177.5 180
0 22.5 45 67.5 90
4664 4630 4601 4550 4483 4402 4310 4205 4091 3967 3834 3690 3541 3386 3224 3057
 2886 2707 2523 2334 2144 1951 1752 1550 1353 1155 955 774 650 552 453 361 274
 193 117 46 1 4 18 35 55 77 105 132 162 191 221 255 291 323 358 393 426 459 492
 523 554 584 612 639 664 689 712 733 752 770 786 799 812 821 829 834 840
4664 4641 4611 4564 4501 4421 4332 4234 4123 4002 3869 3727 3578 3425 3261 3095
 2922 2748 2567 2380 2190 1998 1802 1602 1413 1243 1075 893 729 593 478 384 301
 225 148 83 39 21 17 16 18 19 25 30 43 52 69 101 135 167 203 244 288 332 376
 417 460 501 542 583 620 655 686 714 739 762 781 799 814 825 833 838 840
4664 4663 4638 4597 4545 4478 4394 4296 4188 4075 3952 3824 3687 3543 3394 3235
 3073 2919 2786 2651 2479 2279 2076 1878 1680 1488 1319 1155 988 831 680 521
 392 295 195 133 86 57 39 30 24 22 22 25 26 27 35 44 48 57 69 74 93 135 185 226
 269 317 371 426 480 531 582 629 675 717 754 782 804 821 833 839 840
4664 4670 4652 4624 4584 4526 4455 4375 4285 4191 4091 3984 3870 3746 3628 3524
 3416 3266 3088 2912 2736 2560 2387 2245 2120 1983 1834 1686 1510 1282 1046 825
 566 335 240 174 121 83 58 41 28 22 21 23 26 29 30 30 37 47 54 57 66 74 79 100
 149 207 256 307 362 425 487 550 606 661 712 756 789 813 828 836 840
4664 4668 4650 4622 4584 4536 4479 4410 4328 4243 4161 4070 3967 3869 3789 3703
 3574 3412 3252 3093 2938 2786 2658 2554 2450 2318 2187 2022 1804 1535 1263 957
 568 301 194 100 22 14 17 17 15 17 19 21 24 27 30 31 32 39 51 57 60 69 75 80
 103 158 219 270 324 386 452 519 582 640 694 743 782 806 824 836 840
