IESNA:LM-63-2002
[TEST]23495     
[TESTLAB]LIGHTING SCIENCES, INC.                            
[ISSUEDATE] 3/ 5/2008
[MANUFAC]COOPER LIGHTING - CORELITE
[LUMCAT]R2-WR-2N5-1C-UNV-22-T1                                                          
[LUMINAIRE]WHITE INTERIOR AND FROSTED LINEAR PRISMATIC PLASTIC LENS WITH RECTANGULAR PERF  
[LAMP]TWO SYLVANIA 14 WATT T5 LAMPS                                                   
[LAMPCAT]FP14/841. LUMEN RATING = 1200 LMS.                                              
[OTHER]ONE UNIVERSAL B228PUNV-C BALLAST OPERATING AT 120 VAC AND 32 WATTS              
[OTHER]LAMP COLD SPOT TEMPERATURE - 49.8 & 48.5 C
[OTHER]PAINT REFLECTIVITY - FIXTURE 92% TRAY 84%
[OTHER]PRORATED FROM T23495
TILT=NONE
2 1750 1.46 37 5 1 1 1.95 1.91 0
1 1 32
0 2.5 5 7.5 10 12.5 15 17.5 20 22.5 25 27.5 30 32.5 35 37.5 40 42.5 45 47.5 50 52.5 55 57.5 60 62.5 65 67.5 70 72.5 75 77.5 80 82.5 85 87.5 90
0 22.5 45 67.5 90
430.10 429.40 427.90 425.60 422.50 418.60 413.30 407.10 400.10 392.20 383.40 373.80 363.20 351.90 339.90 327.40 314.20 300.40 286.30 271.70 256.40 240.70 224.80 208.50 192.00 175.30 158.40 141.30 124.10 106.70 89.40 72.10 55.00 37.90 21.70 7.60 0.90
430.10 430.00 428.50 426.30 423.30 419.30 414.20 408.10 401.10 393.40 384.90 375.40 365.20 354.10 342.30 330.00 317.00 303.30 289.50 275.00 259.90 244.20 228.60 212.90 196.90 181.00 164.80 148.50 132.40 116.20 99.80 83.10 66.20 48.00 27.60 9.70 1.30
430.10 429.90 428.60 426.50 423.60 420.00 415.40 409.90 403.60 396.40 388.70 379.90 370.40 360.00 348.80 337.30 325.40 312.80 300.00 287.00 273.50 259.70 246.30 233.00 219.30 205.70 192.00 178.70 166.40 154.90 143.10 128.30 107.60 74.90 36.20 10.50 1.70
430.10 429.60 428.30 426.50 423.90 420.70 416.70 411.80 406.10 399.70 392.60 384.60 376.00 366.70 357.00 347.20 336.90 325.90 314.80 303.80 292.70 280.70 268.90 257.40 246.50 236.70 228.50 221.50 215.10 207.00 195.30 176.90 143.80 88.40 37.50 11.50 2.10
430.10 429.10 427.80 426.20 423.80 420.50 416.90 412.30 406.90 400.90 394.10 386.60 378.60 369.90 361.10 352.00 342.20 332.20 322.00 311.80 300.80 289.70 279.00 268.90 259.90 252.50 246.70 242.00 236.40 228.50 216.30 195.60 153.30 87.60 35.50 11.80 2.10
