IESNA:LM-63-2002
[TEST]23495     
[TESTLAB]LIGHTING SCIENCES, INC.                            
[ISSUEDATE] 3/ 5/2008
[MANUFAC]COOPER LIGHTING - CORELITE
[LUMCAT]R2-WR-2N5-1C-UNV-22-T1                                                          
[LUMINAIRE]WHITE INTERIOR AND FROSTED LINEAR PRISMATIC PLASTIC LENS WITH RECTANGULAR PERF  
[LAMP]TWO SYLVANIA 14 WATT T5 LAMPS                                                   
[LAMPCAT]FP14/841. LUMEN RATING = 1200 LMS.                                              
[OTHER]ONE UNIVERSAL B228PUNV-C BALLAST OPERATING AT 120 VAC AND 32 WATTS              
[OTHER]LAMP COLD SPOT TEMPERATURE - 49.8 & 48.5 C
[OTHER]PAINT REFLECTIVITY - FIXTURE 92% TRAY 84%
TILT=NONE
2
      1200
1
37
5
1
1
  1.95
  1.91
  0.00
1
1
   32.0000
0 2.5 5 7.5 10 12.5 15 17.5 20 22.5 25 27.5 30 32.5 35 37.5
40 42.5 45 47.5 50 52.5 55 57.5 60 62.5 65 67.5 70 72.5 75
77.5 80 82.5 85 87.5 90
0 22.5 45 67.5 90
     430.1      429.4      427.9      425.6      422.5      418.6      413.3      407.1      400.1      392.2
     383.4      373.8      363.2      351.9      339.9      327.4      314.2      300.4      286.3      271.7
     256.4      240.7      224.8      208.5      192.0      175.3      158.4      141.3      124.1      106.7
      89.4       72.1       55.0       37.9       21.7        7.6        0.9
     430.1      430.0      428.5      426.3      423.3      419.3      414.2      408.1      401.1      393.4
     384.9      375.4      365.2      354.1      342.3      330.0      317.0      303.3      289.5      275.0
     259.9      244.2      228.6      212.9      196.9      181.0      164.8      148.5      132.4      116.2
      99.8       83.1       66.2       48.0       27.6        9.7        1.3
     430.1      429.9      428.6      426.5      423.6      420.0      415.4      409.9      403.6      396.4
     388.7      379.9      370.4      360.0      348.8      337.3      325.4      312.8      300.0      287.0
     273.5      259.7      246.3      233.0      219.3      205.7      192.0      178.7      166.4      154.9
     143.1      128.3      107.6       74.9       36.2       10.5        1.7
     430.1      429.6      428.3      426.5      423.9      420.7      416.7      411.8      406.1      399.7
     392.6      384.6      376.0      366.7      357.0      347.2      336.9      325.9      314.8      303.8
     292.7      280.7      268.9      257.4      246.5      236.7      228.5      221.5      215.1      207.0
     195.3      176.9      143.8       88.4       37.5       11.5        2.1
     430.1      429.1      427.8      426.2      423.8      420.5      416.9      412.3      406.9      400.9
     394.1      386.6      378.6      369.9      361.1      352.0      342.2      332.2      322.0      311.8
     300.8      289.7      279.0      268.9      259.9      252.5      246.7      242.0      236.4      228.5
     216.3      195.6      153.3       87.6       35.5       11.8        2.1
