IESNA:LM-63-1995
[TEST]     23387
[MANUFAC]COOPER LIGHTING - CORELITE                                      
[LUMCAT]R2-WL-2N5-14                                                                    
[LUMINAIRE]WITH WHITE INTERIOR AND FROSTED LINEAR PRISMATIC PLASTIC LENS                   
[LAMP]TWO SYLVANIA 28 WATT T5 LAMPS                                                   
[LAMPCAT]FP28/841. LUMEN RATING = 2600 LMS.                                              
[OTHER]ONE UNIVERSAL B228PUNV-C BALLAST OPERATING AT 120 VAC AND 60 WATTS              
[OTHER]LAMP COLD SPOT TEMPERATURE - 56.9 & 55.1 C
[OTHER]PAINT REFLECTIVITY - FIXTURE 79% TRAY 95%
TILT=NONE
2
      2600
1
37
5
1
1
  0.92
  3.92
  0.00
1
1
   60.0000
0 2.5 5 7.5 10 12.5 15 17.5 20 22.5 25 27.5 30 32.5 35 37.5
40 42.5 45 47.5 50 52.5 55 57.5 60 62.5 65 67.5 70 72.5 75
77.5 80 82.5 85 87.5 90
0 22.5 45 67.5 90
    1375.5     1354.6     1349.8     1341.8     1330.1     1315.4     1297.5     1276.3     1251.5     1224.2
    1193.5     1160.1     1124.1     1085.6     1044.7     1002.2      958.2      912.4      865.0      816.3
     766.8      716.9      666.6      615.9      564.7      513.6      462.0      410.9      360.3      310.6
     261.7      214.0      166.3      119.7       74.2       32.6        5.1
    1375.5     1364.6     1360.2     1352.9     1342.3     1328.5     1311.5     1291.3     1268.1     1242.0
    1213.1     1181.5     1146.9     1109.9     1070.5     1029.4      985.9      941.1      895.0      848.1
     798.8      748.3      697.2      646.0      594.6      543.3      491.8      441.6      391.3      340.9
     289.3      236.4      180.6      125.6       76.2       32.4        5.5
    1375.5     1381.1     1377.3     1371.5     1363.5     1352.7     1339.1     1322.8     1303.4     1281.9
    1257.4     1229.8     1199.9     1167.3     1132.3     1095.7     1056.0     1013.6      970.0      925.1
     878.5      830.1      782.6      733.7      682.9      630.7      576.2      519.4      456.2      386.5
     319.5      256.9      196.0      136.1       80.8       33.9        5.9
    1375.5     1384.8     1382.0     1377.6     1371.9     1363.9     1353.5     1339.9     1325.7     1308.2
    1288.7     1266.0     1240.8     1212.5     1181.9     1149.1     1113.5     1076.2     1037.5      997.3
     955.0      909.7      861.8      810.4      757.9      701.2      633.6      557.1      484.1      413.8
     346.3      274.7      204.1      139.4       82.0       34.6        5.9
    1375.5     1385.7     1382.6     1380.1     1375.3     1368.2     1359.0     1348.7     1335.5     1319.9
    1302.0     1281.9     1258.4     1232.1     1203.9     1173.3     1140.8     1106.0     1069.5     1029.8
     988.0      943.2      893.2      842.7      788.8      725.3      648.4      574.0      500.4      430.6
     357.8      282.0      209.1      143.0       86.7       38.4        7.7
