IESNA:LM-63-1995
[TEST]     23391
[MANUFAC]COOPER LIGHTING - CORELITE                                      
[LUMCAT]R2-WL-3N5-14                                                                    
[LUMINAIRE]WITH WHITE INTERIOR AND FROSTED LINEAR PRISMATIC PLASTIC LENS                   
[LAMP]THREE SYLVANIA 28 WATT T5 LAMPS                                                 
[LAMPCAT]FP28/841. LUMEN RATING = 2600 LMS.                                              
[OTHER]TWO UNIVERSAL B228PUNV-C BALLASTS OPERATING AT 120 VAC AND 86 WATTS             
[OTHER]LAMP COLD SPOT TEMPERATURE - 62.2 & 58.7 & 61.4 C
[OTHER]PAINT REFLECTIVITY - FIXTURE 79% TRAY 95%
TILT=NONE
3
      2600
1
37
5
1
1
  0.92
  3.92
  0.00
1
1
   86.0000
0 2.5 5 7.5 10 12.5 15 17.5 20 22.5 25 27.5 30 32.5 35 37.5
40 42.5 45 47.5 50 52.5 55 57.5 60 62.5 65 67.5 70 72.5 75
77.5 80 82.5 85 87.5 90
0 22.5 45 67.5 90
    1905.3     1876.5     1869.6     1858.4     1842.4     1821.8     1796.6     1766.9     1732.4     1693.5
    1650.4     1604.0     1553.8     1500.3     1443.7     1385.0     1323.9     1260.2     1194.2     1126.2
    1057.1      987.5      917.3      846.9      776.5      706.0      635.9      565.7      496.4      428.0
     361.1      295.1      230.4      166.8      105.4       47.7        8.4
    1905.3     1890.7     1884.6     1874.5     1859.9     1840.9     1817.1     1789.2     1757.1     1720.7
    1680.6     1636.5     1588.9     1537.5     1483.3     1426.2     1366.3     1303.7     1239.7     1174.3
    1106.1     1036.0      966.2      896.0      825.2      754.4      683.4      613.1      543.1      472.9
     402.7      330.2      255.8      182.2      115.9       54.9       11.5
    1905.3     1912.9     1908.0     1900.1     1889.6     1874.9     1856.4     1834.0     1807.5     1778.2
    1744.5     1707.0     1666.3     1622.0     1574.5     1524.4     1470.7     1412.6     1353.3     1291.9
    1228.3     1162.0     1095.6     1026.6      956.6      882.5      806.9      727.3      643.6      549.9
     459.2      373.8      292.7      212.4      135.0       62.5       13.7
    1905.3     1917.5     1914.2     1908.4     1901.2     1891.3     1877.8     1859.8     1841.3     1818.1
    1792.5     1762.2     1729.1     1692.0     1652.1     1609.3     1562.5     1513.1     1460.9     1405.5
    1347.0     1284.3     1217.6     1147.4     1073.6      994.9      906.8      804.7      706.3      610.3
     519.2      427.1      333.9      242.7      153.5       70.5       15.5
    1905.3     1918.7     1915.0     1911.9     1906.0     1897.1     1885.2     1872.4     1855.5     1835.7
    1813.2     1787.6     1757.1     1723.3     1686.1     1646.5     1603.7     1557.8     1508.3     1455.2
    1398.0     1335.9     1268.8     1197.2     1120.9     1036.4      934.7      833.3      736.4      640.0
     546.8      448.3      350.3      253.9      161.4       74.7       17.3
