IESNA:LM-63-1995
[TEST]     23389
[MANUFAC]COOPER LIGHTING - CORELITE                                      
[LUMCAT]R2-WL-1N5-14                                                                    
[LUMINAIRE]WITH WHITE INTERIOR AND FROSTED LINEAR PRISMATIC PLASTIC LENS                   
[LAMP]ONE SYLVANIA 28 WATT T5 LAMP                                                    
[LAMPCAT]FP28/841. LUMEN RATING = 2600 LMS.                                              
[OTHER]ONE UNIVERSAL B228PUNV-C BALLAST OPERATING AT 120 VAC AND 34 WATTS              
[OTHER]LAMP COLD SPOT TEMPERATURE - 42.4 C
[OTHER]PAINT REFLECTIVITY - FIXTURE 79% TRAY 95%
TILT=NONE
1
      2600
1
37
5
1
1
  0.92
  3.92
  0.00
1
1
   34.0000
0 2.5 5 7.5 10 12.5 15 17.5 20 22.5 25 27.5 30 32.5 35 37.5
40 42.5 45 47.5 50 52.5 55 57.5 60 62.5 65 67.5 70 72.5 75
77.5 80 82.5 85 87.5 90
0 22.5 45 67.5 90
     726.9      715.6      713.1      709.1      703.3      695.8      686.8      676.0      663.4      649.3
     633.7      616.8      598.4      578.8      557.8      536.1      513.4      489.8      465.1      439.7
     413.9      387.7      361.5      334.7      307.5      280.0      252.5      224.9      197.7      170.7
     144.3      118.2       92.4       66.8       41.9       18.5        2.8
     726.9      721.3      719.2      715.5      710.3      703.4      694.9      684.7      673.0      660.0
     645.6      629.5      612.2      593.3      573.4      552.4      530.3      507.3      483.7      459.8
     434.3      408.1      381.4      354.6      327.2      299.4      271.5      243.8      216.2      188.4
     160.5      132.2      103.0       73.4       46.2       21.2        3.9
     726.9      729.8      728.0      725.3      721.4      716.4      709.9      702.1      692.8      682.6
     671.0      657.9      643.8      628.5      612.0      594.5      575.7      555.1      533.5      511.3
     488.0      463.6      439.2      413.8      387.4      359.5      330.3      300.6      268.0      231.8
     195.0      160.2      126.2       92.2       58.6       26.2        4.7
     726.9      731.9      730.8      728.8      726.5      723.2      718.5      712.6      706.5      699.3
     691.1      681.5      671.0      659.1      646.1      632.1      616.8      600.7      583.8      565.6
     546.5      525.4      502.2      477.5      451.6      423.9      390.0      349.4      309.7      271.3
     233.0      193.3      152.0      111.6       69.5       29.2        4.7
     726.9      732.3      731.0      730.1      728.3      725.5      721.8      717.9      712.7      706.7
     699.8      692.2      683.1      672.9      661.6      649.5      636.6      622.7      607.7      591.2
     573.0      552.9      530.2      506.6      481.2      449.9      409.3      368.8      329.6      290.0
     249.4      206.2      162.8      118.5       73.5       31.2        5.8
