IESNA:LM-63-2002
[TEST]232P107
[TESTLAB]METALUX RESEARCH LABORATORIES
[ISSUEDATE]07/23/04
[MANUFAC]COOPER LIGHTING - METALUX
[LUMCAT]2GC8-2BX40A-120-EB51
[[LUMINAIRE]METALUX 2' X 2' SPECIFICATION GRADE RECESSED FLUORESCENT TROFFER
[MORE]WITH HIGH REFLECTANCE WHITE INTERIOR FINISH AND ACRYLIC PRISMATIC LENS
[LAMP] (2) F40BX /SP35 /RS -3150 LUMENS EA.- 40 WATTS EA.
[BALLAST]ADVANCE RCN 2TTP40-SC
[OTHER]INPUT WATTS = 74 AT 120 V
[_PAINTREFL]90.4 %
TILT=NONE
2 3150 1 37 5 1  1 1.791667 1.812500 0.000000
1.000 1 74
0 2.5 5 7.5 10 12.5 15 17.5 20 22.5 25 27.5 30 32.5 35 37.5 40 42.5 45 47.5 50 
 52.5 55 57.5 60 62.5 65 67.5 70 72.5 75 77.5 80 82.5 85 87.5 90 
0 22.5 45 67.5 90 
1941 1940 1933 1922 1906 1887 1861 1831 1796 1754 1707 1654 1596 1530 1460 
 1382 1298 1203 1103 1002 905 811 722 636 554 478 410 352 302 260 225 196 168 
 135 97 57 0 
1941 1940 1934 1924 1911 1893 1870 1844 1813 1776 1734 1686 1632 1571 1502 
 1424 1336 1241 1143 1043 944 843 742 643 550 463 389 326 277 240 209 178 149 
 119 89 55 0 
1941 1939 1936 1930 1920 1909 1893 1875 1853 1826 1795 1757 1711 1656 1590 
 1513 1426 1332 1235 1134 1031 922 809 694 581 477 385 306 244 200 175 159 142 
 118 84 48 0 
1941 1940 1938 1934 1930 1923 1915 1904 1890 1871 1848 1819 1783 1737 1680 
 1608 1523 1425 1316 1200 1078 954 834 720 616 522 443 376 322 278 240 207 177 
 150 116 70 0 
1941 1943 1942 1938 1935 1931 1925 1916 1905 1889 1869 1842 1810 1770 1720 
 1657 1575 1474 1361 1237 1111 983 861 745 640 542 460 392 340 300 271 243 212 
 172 125 71 0 
