IESNA:LM-63-1995
[TEST]     23293
[MANUFAC]COOPER LIGHTING - CORELITE                                      
[LUMCAT]R1-WL-2N5-14                                                                    
[LUMINAIRE]WITH WHITE INTERIOR AND FROSTED LINEAR PRISMATIC PLASTIC LENS                   
[LAMP]TWO SYLVANIA 28 WATT T5 LAMPS                                                   
[LAMPCAT]FP28/841. LUMEN RATING = 2600 LMS.                                              
[OTHER]ONE UNIVERSAL B228PUNV-C BALLAST OPERATING AT 120 VAC AND 60 WATTS              
[OTHER]LAMP COLD SPOT TEMPERATURE - 51.9 & 51.6 C
[OTHER]PAINT REFLECTIVITY - FIXTURE 75% TRAY 94%
TILT=NONE
2
      2600
1
37
5
1
1
  0.92
  3.92
  0.00
1
1
   60.0000
0 2.5 5 7.5 10 12.5 15 17.5 20 22.5 25 27.5 30 32.5 35 37.5
40 42.5 45 47.5 50 52.5 55 57.5 60 62.5 65 67.5 70 72.5 75
77.5 80 82.5 85 87.5 90
0 22.5 45 67.5 90
    1362.3     1341.3     1336.4     1328.0     1316.1     1301.0     1282.3     1260.4     1235.2     1207.0
    1175.9     1141.6     1104.9     1065.5     1023.9      981.0      936.3      890.3      842.6      794.0
     744.4      694.4      643.9      593.6      543.0      492.8      442.3      392.7      343.6      295.4
     248.1      201.8      156.0      111.2       68.1       29.0        4.5
    1362.3     1350.6     1346.1     1338.4     1327.6     1313.5     1295.8     1275.1     1251.2     1224.5
    1194.9     1162.7     1127.6     1089.8     1049.8     1008.2      964.1      918.7      872.0      825.1
     776.3      726.1      675.4      624.6      573.7      523.2      473.5      424.2      375.7      326.8
     277.2      226.7      172.4      118.5       70.8       29.7        5.8
    1362.3     1367.9     1364.1     1357.8     1349.3     1337.8     1323.5     1305.9     1285.6     1262.7
    1237.0     1208.3     1177.1     1143.6     1107.1     1069.3     1028.9      985.4      940.7      895.6
     849.2      801.6      753.7      704.6      654.5      603.0      550.8      496.8      435.2      368.9
     301.0      239.9      181.0      124.7       73.1       30.0        6.8
    1362.3     1371.4     1368.4     1363.7     1357.1     1348.3     1336.4     1321.3     1305.3     1286.4
    1265.0     1240.4     1213.3     1183.2     1150.5     1115.8     1079.0     1040.6     1000.7      959.0
     915.4      869.3      820.7      770.2      718.8      664.0      598.5      524.6      451.7      383.6
     316.6      250.4      184.3      122.7       68.1       27.2        6.9
    1362.3     1372.5     1369.5     1366.0     1360.2     1351.7     1341.1     1329.1     1314.0     1296.2
    1276.3     1253.8     1227.8     1199.3     1168.2     1135.3     1100.9     1064.3     1025.4      984.1
     940.2      894.0      845.7      795.9      743.1      680.7      607.5      531.3      458.9      390.4
     320.8      251.2      183.8      121.2       68.4       27.9        7.7
